# x y intensity
2135.0 3758.0 339162.391197923 435.5684182327836
2089.0 1424.0 270787.1183056294 389.6487865199388
558.0 4098.0 256921.3857700941 379.0658166190465
2132.0 2312.0 254998.97633976935 377.6544559382232
2133.0 3780.0 224914.01561281577 355.44496027500185
65.0 662.0 196223.35280030224 333.10271422249036
2466.0 3410.0 173924.10578115116 312.38004631411303
446.0 2300.0 154879.8346941434 294.59309793102443
1772.0 578.0 151270.60979774938 291.06397924012407
1692.0 30.0 150350.64630802805 290.3973243223771
