# x y intensity
1002.0 501.0 11570448665.085148 5.3233981475811776e+17
218.0 710.0 3269770885.0632963 2.9911072409477037e+17
1042.0 926.0 1854154118.450014 1.5419984752236765e+17
1042.0 925.0 1782212588.7706318 1.621957491676862e+17
1042.0 924.0 1754103249.4259138 2.8210264846978938e+17
688.0 284.0 1251761783.9607453 9.19503067008798e+16
1113.0 655.0 207887649.31340852 5208330454.091214
645.0 1111.0 94608437.21488294 713102720.7555673
65.0 662.0 4733740.71651673 405908.34130385774
866.0 43.0 3222202.7660581013 332842.2483286835
