# x y intensity
483.0 64.0 115433.92192023777 137622.80495221974
92.0 541.0 112325.9334993901 151616.392197086
87.0 546.0 110460.56017207068 63720.11132780815
168.0 347.0 72904.61988379214 111705.15884286618
483.0 70.0 45888.17550760448 11270.366100341074
94.0 545.0 36593.9680457627 3317.8957564996217
483.0 65.0 35933.38533130806 4986.7102066450025
480.0 69.0 35226.64728221286 6304.216616859132
253.0 254.0 31457.70352327085 5305.4507891528465
162.0 202.0 30313.44095913181 31748.604644076273
