# x y intensity
483.0 64.0 112247.8441720565 133334.98159099178
168.0 347.0 66283.90334271878 100323.71283513079
190.0 350.0 55895.65951925998 5082.366686127278
483.0 70.0 47818.90748174241 11748.942903958588
483.0 65.0 35190.439471833946 4867.192499119107
480.0 69.0 33923.229536006904 5943.906861982622
253.0 254.0 31457.703423727802 5305.450953961035
304.0 131.0 31096.12556127716 2813.268574138277
162.0 202.0 30313.44166618245 31748.60565681769
441.0 499.0 27064.15266218811 5187.967716512036
